ALV-5000/E-WIN Data
Date :	"19.08.2013"
Time :	"13:39:35"
Samplename : 	""
SampMemo(0) : 	""
SampMemo(1) : 	""
SampMemo(2) : 	""
SampMemo(3) : 	""
SampMemo(4) : 	""
SampMemo(5) : 	""
SampMemo(6) : 	""
SampMemo(7) : 	""
SampMemo(8) : 	""
SampMemo(9) : 	""
Temperature [K] :	     298.16000
Viscosity [cp]  :	       0.89000
Refractive Index:	       1.33200
Wavelength [nm] :	     488.00000
Angle [°]       :	       0.00000
Duration [s]    :	        10
Runs            :	         1
Mode            :	"SINGLE AUTO CH0"
MeanCR0 [kHz]   :	     117.79320
MeanCR1 [kHz]   :	       0.00000

"Correlation"
  2.00000E-004	  7.77936E-001
  4.00000E-004	  5.62679E-001
  6.00000E-004	  4.87972E-001
  8.00000E-004	  4.83364E-001
  1.00000E-003	  4.63721E-001
  1.20000E-003	  4.40797E-001
  1.40000E-003	  4.57199E-001
  1.60000E-003	  4.27753E-001
  1.80000E-003	  4.21388E-001
  2.00000E-003	  4.21427E-001
  2.20000E-003	  4.16663E-001
  2.40000E-003	  3.94520E-001
  2.60000E-003	  3.91903E-001
  2.80000E-003	  4.01276E-001
  3.00000E-003	  3.89873E-001
  3.20000E-003	  3.77931E-001
  3.60000E-003	  3.69398E-001
  4.00000E-003	  3.62876E-001
  4.40000E-003	  3.55320E-001
  4.80000E-003	  3.44600E-001
  5.20000E-003	  3.36770E-001
  5.60000E-003	  3.38898E-001
  6.00000E-003	  3.39894E-001
  6.40000E-003	  3.26161E-001
  7.20000E-003	  3.21612E-001
  8.00000E-003	  3.14192E-001
  8.80000E-003	  3.03199E-001
  9.60000E-003	  2.91991E-001
  1.04000E-002	  2.89998E-001
  1.12000E-002	  2.89061E-001
  1.20000E-002	  2.78027E-001
  1.28000E-002	  2.78250E-001
  1.44000E-002	  2.65934E-001
  1.60000E-002	  2.62083E-001
  1.76000E-002	  2.52983E-001
  1.92000E-002	  2.51178E-001
  2.08000E-002	  2.48371E-001
  2.24000E-002	  2.42587E-001
  2.40000E-002	  2.39360E-001
  2.56000E-002	  2.37890E-001
  2.88000E-002	  2.31400E-001
  3.20000E-002	  2.29252E-001
  3.52000E-002	  2.25405E-001
  3.84000E-002	  2.21831E-001
  4.16000E-002	  2.17407E-001
  4.48000E-002	  2.21708E-001
  4.80000E-002	  2.17840E-001
  5.12000E-002	  2.15613E-001
  5.76000E-002	  2.10900E-001
  6.40000E-002	  2.06720E-001
  7.04000E-002	  2.06008E-001
  7.68000E-002	  2.00960E-001
  8.32000E-002	  2.01824E-001
  8.96000E-002	  2.01126E-001
  9.60000E-002	  2.00594E-001
  1.02400E-001	  1.97994E-001
  1.15200E-001	  1.94586E-001
  1.28000E-001	  1.90277E-001
  1.40800E-001	  1.84606E-001
  1.53600E-001	  1.82654E-001
  1.66400E-001	  1.80212E-001
  1.79200E-001	  1.77831E-001
  1.92000E-001	  1.75256E-001
  2.04800E-001	  1.72470E-001
  2.30400E-001	  1.66539E-001
  2.56000E-001	  1.63876E-001
  2.81600E-001	  1.58595E-001
  3.07200E-001	  1.55267E-001
  3.32800E-001	  1.50669E-001
  3.58400E-001	  1.45789E-001
  3.84000E-001	  1.42163E-001
  4.09600E-001	  1.38300E-001
  4.60800E-001	  1.32860E-001
  5.12000E-001	  1.25858E-001
  5.63200E-001	  1.20177E-001
  6.14400E-001	  1.15573E-001
  6.65600E-001	  1.10690E-001
  7.16800E-001	  1.06803E-001
  7.68000E-001	  1.03968E-001
  8.19200E-001	  1.00406E-001
  9.21600E-001	  9.38137E-002
  1.02400E+000	  8.80945E-002
  1.12640E+000	  8.24763E-002
  1.22880E+000	  7.89267E-002
  1.33120E+000	  7.60630E-002
  1.43360E+000	  7.31616E-002
  1.53600E+000	  6.88008E-002
  1.63840E+000	  6.61798E-002
  1.84320E+000	  6.02584E-002
  2.04800E+000	  5.40384E-002
  2.25280E+000	  5.05385E-002
  2.45760E+000	  4.73315E-002
  2.66240E+000	  4.25822E-002
  2.86720E+000	  4.00319E-002
  3.07200E+000	  3.75255E-002
  3.22560E+000	  3.64767E-002
  3.63520E+000	  3.31529E-002
  4.04480E+000	  3.09835E-002
  4.45440E+000	  2.84191E-002
  4.86400E+000	  2.52659E-002
  5.27360E+000	  2.46241E-002
  5.68320E+000	  2.21162E-002
  6.09280E+000	  2.00972E-002
  6.50240E+000	  1.89242E-002
  7.32160E+000	  1.72757E-002
  8.14080E+000	  1.64845E-002
  8.96000E+000	  1.61312E-002
  9.77920E+000	  1.38939E-002
  1.05984E+001	  1.31277E-002
  1.14176E+001	  1.30932E-002
  1.22368E+001	  1.15073E-002
  1.30560E+001	  1.07414E-002
  1.46944E+001	  8.58198E-003
  1.63328E+001	  6.57390E-003
  1.79712E+001	  6.13689E-003
  1.96096E+001	  3.50576E-003
  2.12480E+001	  8.08042E-004
  2.28864E+001	  1.90654E-003
  2.45248E+001	  2.59939E-003
  2.61632E+001	  2.17975E-003
  2.94400E+001	  5.15572E-004
  3.27168E+001	 -1.00181E-003
  3.59936E+001	  1.52549E-003
  3.92704E+001	 -1.18188E-004
  4.25472E+001	 -2.69974E-003
  4.58240E+001	 -1.86137E-003
  4.91008E+001	 -5.82597E-004
  5.23776E+001	  1.45354E-003
  5.89312E+001	  1.72096E-003
  6.54848E+001	  3.55410E-004
  7.20384E+001	  2.32974E-003
  7.85920E+001	 -8.78137E-004
  8.51456E+001	  6.78211E-004
  9.16992E+001	  3.39943E-004
  9.82528E+001	  1.76842E-005
  1.04806E+002	 -9.90504E-004
  1.17914E+002	 -3.59969E-003
  1.31021E+002	 -4.10271E-003
  1.44128E+002	 -1.99741E-003
  1.57235E+002	 -4.93625E-004
  1.70342E+002	 -5.00645E-005
  1.83450E+002	  7.64966E-004
  1.96557E+002	  8.08399E-004
  2.09664E+002	  1.27850E-003
  2.35878E+002	 -1.21226E-003
  2.62093E+002	 -1.48028E-003
  2.88307E+002	 -1.18429E-003
  3.14522E+002	 -2.47264E-003
  3.40736E+002	  3.03818E-003
  3.66950E+002	  2.85309E-003
  3.93165E+002	  4.07178E-004
  4.19379E+002	 -2.18121E-004
  4.71808E+002	 -4.56831E-004
  5.24237E+002	 -1.03838E-003
  5.76666E+002	 -8.80142E-004
  6.29094E+002	 -1.06786E-003
  6.81523E+002	 -7.80831E-004
  7.33952E+002	 -3.94703E-004
  7.86381E+002	 -1.64558E-003
  8.38810E+002	 -2.22965E-003
  9.43667E+002	 -1.70186E-004
  1.04852E+003	 -5.62730E-004
  1.15338E+003	  8.80356E-005
  1.25824E+003	 -1.55963E-003
  1.36310E+003	  1.09378E-003
  1.46796E+003	 -9.09373E-004
  1.57281E+003	  9.78158E-004
  1.67767E+003	  4.04962E-004
  1.88739E+003	 -4.31814E-004
  2.09710E+003	 -2.75675E-004
  2.30682E+003	  1.41790E-004
  2.51653E+003	 -6.81164E-004
  2.72625E+003	  8.16502E-004
  2.93596E+003	  8.93634E-004
  3.14568E+003	 -3.88980E-004

"Count Rate"
       0.03906	     111.53372
       0.07813	     109.78619
       0.11719	     111.48232
       0.15625	     135.20251
       0.19531	     106.49671
       0.23438	     127.49281
       0.27344	     135.99918
       0.31250	     139.46855
       0.35156	     132.09293
       0.39063	      78.38199
       0.42969	     115.85116
       0.46875	     106.44531
       0.50781	     129.93422
       0.54688	      99.01830
       0.58594	     106.59951
       0.62500	     123.32957
       0.66406	     125.66817
       0.70313	     124.87151
       0.74219	     116.18524
       0.78125	     106.29112
       0.82031	     143.19490
       0.85938	     126.33635
       0.89844	     140.88199
       0.93750	     100.32895
       0.97656	     137.66962
       1.01563	     121.65913
       1.05469	     154.83656
       1.09375	     101.02283
       1.13281	     150.31354
       1.17188	     133.60918
       1.21094	     120.39988
       1.25000	     107.91016
       1.28906	     110.99404
       1.32813	     104.62068
       1.36719	      81.51727
       1.40625	     140.21382
       1.44531	     116.67352
       1.48438	     123.07258
       1.52344	     115.77406
       1.56250	     133.30078
       1.60156	     144.73685
       1.64063	      95.42044
       1.67969	      84.47266
       1.71875	     109.32361
       1.75781	     102.79606
       1.79688	     124.48602
       1.83594	     135.43381
       1.87500	     120.88816
       1.91406	     130.93648
       1.95313	     129.21465
       1.99219	     114.90029
       2.03125	      82.75082
       2.07031	      89.04708
       2.10938	     137.54112
       2.14844	     105.52015
       2.18750	     130.75658
       2.22656	      90.12644
       2.26563	     124.53742
       2.30469	     111.25103
       2.34375	     118.72945
       2.38281	     104.13240
       2.42188	     134.73993
       2.46094	     103.59273
       2.50000	     120.27139
       2.53906	     131.01357
       2.57813	     109.58060
       2.61719	     105.77714
       2.65625	     131.27057
       2.69531	     120.96526
       2.73438	     151.72697
       2.77344	     144.01727
       2.81250	     124.43462
       2.85156	     146.97266
       2.89063	      93.90420
       2.92969	     132.83820
       2.96875	     113.53825
       3.00781	      91.71978
       3.04688	     104.69778
       3.08594	     104.20950
       3.12500	     118.00987
       3.16406	     107.57607
       3.20313	     141.67867
       3.24219	     120.34848
       3.28125	     107.73026
       3.32031	     131.39906
       3.35938	     104.87768
       3.39844	     100.43175
       3.43750	     128.93195
       3.47656	     134.43153
       3.51563	     105.08327
       3.55469	     127.82690
       3.59375	     113.74384
       3.63281	      87.19675
       3.67188	     116.28804
       3.71094	     105.54585
       3.75000	     102.10218
       3.78906	     122.86698
       3.82813	     105.54585
       3.86719	     119.19202
       3.90625	     116.57072
       3.94531	     138.69757
       3.98438	     129.65152
       4.02344	      94.67516
       4.06250	     103.46423
       4.10156	     110.50576
       4.14063	      89.61246
       4.17969	     106.77940
       4.21875	     117.18750
       4.25781	     123.04688
       4.29688	     121.29935
       4.33594	     128.72636
       4.37500	     133.89186
       4.41406	     120.88816
       4.45313	     141.78146
       4.49219	     143.32339
       4.53125	      97.34786
       4.57031	     122.48150
       4.60938	     118.16406
       4.64844	     157.14948
       4.68750	     133.22369
       4.72656	     122.71279
       4.76563	     133.37788
       4.80469	      91.69408
       4.84375	     124.92290
       4.88281	     147.02406
       4.92188	     141.80716
       4.96094	     155.86452
       5.00000	     108.75822
       5.03906	     107.06209
       5.07813	      93.69860
       5.11719	     123.09827
       5.15625	     130.60239
       5.19531	     122.37870
       5.23438	      84.18997
       5.27344	     109.88898
       5.31250	     114.33492
       5.35156	     107.39618
       5.39063	     121.11945
       5.42969	      98.29873
       5.46875	     116.82772
       5.50781	     120.93956
       5.54688	      85.14083
       5.58594	     130.91078
       5.62500	     139.44286
       5.66406	     115.23438
       5.70313	     113.25555
       5.74219	      83.62459
       5.78125	     123.04688
       5.82031	     130.67949
       5.85938	     126.05367
       5.89844	     113.56394
       5.93750	     112.97286
       5.97656	     123.09827
       6.01563	     108.57833
       6.05469	     119.47472
       6.09375	     116.93051
       6.13281	     126.10506
       6.17188	     145.04523
       6.21094	     122.58430
       6.25000	     130.31970
       6.28906	     101.51111
       6.32813	     123.74075
       6.36719	     104.02961
       6.40625	     122.32731
       6.44531	     104.72348
       6.48438	     102.41057
       6.52344	     144.22287
       6.56250	     114.28352
       6.60156	      86.24589
       6.64063	      88.58450
       6.67969	      95.75452
       6.71875	     114.28352
       6.75781	     121.40214
       6.79688	     133.14659
       6.83594	     109.63200
       6.87500	     117.90707
       6.91406	     144.86534
       6.95313	     125.79667
       6.99219	      99.68648
       7.03125	     122.30161
       7.07031	     104.80058
       7.10938	     114.97739
       7.14844	     136.69305
       7.18750	     118.34396
       7.22656	     101.51111
       7.26563	     114.33492
       7.30469	     140.83060
       7.34375	     117.31600
       7.38281	     127.69840
       7.42188	     126.61904
       7.46094	     109.04092
       7.50000	     138.62048
       7.53906	     158.43442
       7.57813	     114.79749
       7.61719	     144.17146
       7.65625	     119.65461
       7.69531	     130.52528
       7.73438	      90.12644
       7.77344	     112.76727
       7.81250	      97.83614
       7.85156	     177.99136
       7.89063	     135.84499
       7.92969	      96.98808
       7.96875	     105.10896
       8.00781	     106.18832
       8.04688	     143.42619
       8.08594	     101.99939
       8.12500	      87.89063
       8.16406	      93.69860
       8.20313	     104.69778
       8.24219	     128.10959
       8.28125	      97.06518
       8.32031	     141.19038
       8.35938	     106.75370
       8.39844	      96.19141
       8.43750	     118.65234
       8.47656	     129.60013
       8.51563	      88.81579
       8.55469	     104.00391
       8.59375	      94.59807
       8.63281	      91.89967
       8.67188	     121.42784
       8.71094	     115.13158
       8.75000	     166.37541
       8.78906	     121.91612
       8.82813	     149.07999
       8.86719	     101.04852
       8.90625	     125.51398
       8.94531	      98.78701
       8.98438	      96.16571
       9.02344	      90.02364
       9.06250	     111.79071
       9.10156	     145.04523
       9.14063	     107.24198
       9.17969	     132.42702
       9.21875	     138.44058
       9.25781	     102.59046
       9.29688	      85.37212
       9.33594	     108.78393
       9.37500	     139.18585
       9.41406	     103.10445
       9.45313	     110.91695
       9.49219	     118.47245
       9.53125	     111.55942
       9.57031	     122.94408
       9.60938	     117.18750
       9.64844	     116.64783
       9.68750	     127.44141
       9.72656	     119.68031
       9.76563	     109.86328
       9.80469	     122.12171
